* Sea-Bird SBE 9 Data File:
* FileName = D:\COMISSOES\PIRATA_BR_X\Bruto\PIRX003.dat
* Software Version Seasave Win32 V 5.37d
* Temperature SN = 1721
* Conductivity SN = 1499
* Number of Bytes Per Scan = 21
* Number of Voltage Words = 1
* Number of Scans Averaged by the Deck Unit = 1
* System UpLoad Time = Apr 02 2008 18:52:30
** H40 
** NOc ANTARES 
** 196 
** PIRATA BR X 
**   003
**   12 40.46 N
**   038 00.11 W
**   02/04/2008 18:53
**   5480
** 09P46375-0881 
**   1T Felipe Garcez
# nquan = 11
# nvalues = 349                         
# units = specified
# name 0 = timeS: Time, Elapsed [seconds]
# name 1 = prDM: Pressure, Digiquartz [db]
# name 2 = t090C: Temperature [ITS-90, deg C]
# name 3 = t190C: Temperature, 2 [ITS-90, deg C]
# name 4 = c0S/m: Conductivity [S/m]
# name 5 = c1S/m: Conductivity, 2 [S/m]
# name 6 = potemp090C: Potential Temperature [ITS-90, deg C]
# name 7 = potemp190C: Potential Temperature, 2 [ITS-90, deg C]
# name 8 = sal00: Salinity [PSU]
# name 9 = sal11: Salinity, 2 [PSU]
# name 10 = flag:
# span 0 =    246.446,    729.875       
# span 1 =    162.000,    510.000       
# span 2 =     9.5021,    15.8635       
# span 3 =     7.8190,    15.7969       
# span 4 =   3.706215,   4.468541       
# span 5 =   3.407280,   4.497739       
# span 6 =     9.4410,    15.8372       
# span 7 =     7.7944,    15.7713       
# span 8 =    30.9703,    40.7058       
# span 9 =    31.1800,    36.0788       
# span 10 = 0.0000e+00, 0.0000e+00      
# interval = decibars: 1                
# start_time = Apr 02 2008 18:52:30
# bad_flag = -9.990e-29
# sensor 0 = Frequency  0  temperature, primary, 1721, 03/04/2007
# sensor 1 = Frequency  1  conductivity, primary, 1499, 03/07/2007, cpcor = -9.5700e-08
# sensor 2 = Frequency  2  pressure, 104455, 19/02/2007
# sensor 3 = Frequency  3  temperature, secondary, 2500, 06/01/2006
# sensor 4 = Frequency  4  conductivity, secondary, 0598, 06/01/2005, cpcor = -9.5700e-08
# datcnv_date = Jan 18 2011 10:08:59, 7.18
# datcnv_in = X:\piratax\raw_data\pirx003.dat X:\piratax\raw_data\PIRX003.con
# datcnv_skipover = 5900
# alignctd_date = Jan 18 2011 10:09:02, 7.18
# alignctd_in = X:\piratax\proc_data\pirx003.cnv
# alignctd_adv = c0S/m -0.030, c1S/m -0.020                                                                                                                                                                                          
# wildedit_date = Jan 18 2011 10:09:04, 7.18
# wildedit_in = X:\piratax\proc_data\pirx003.cnv
# wildedit_pass1_nstd = 2.0
# wildedit_pass2_nstd = 20.0
# wildedit_pass2_mindelta = 0.000e+000
# wildedit_npoint = 3000
# wildedit_vars = prDM t090C t190C c0S/m c1S/m
# wildedit_excl_bad_scans = yes
# filter_date = Jan 18 2011 10:09:06, 7.18
# filter_in = X:\piratax\proc_data\pirx003.cnv
# filter_low_pass_tc_A = 0.030
# filter_low_pass_tc_B = 0.150
# filter_low_pass_A_vars = t090C t190C c0S/m c1S/m
# filter_low_pass_B_vars = prDM
# celltm_date = Jan 18 2011 10:09:10, 7.18
# celltm_in = X:\piratax\proc_data\pirx003.cnv
# celltm_alpha = 0.0300, 0.0300
# celltm_tau = 7.0000, 7.0000
# celltm_temp_sensor_use_for_cond = primary, secondary
# Derive_date = Jan 18 2011 10:09:20, 7.18
# Derive_in = X:\piratax\proc_data\pirx003.cnv X:\piratax\raw_data\PIRX003.con
# loopedit_date = Jan 18 2011 10:09:23, 7.18
# loopedit_in = X:\piratax\proc_data\pirx003.cnv
# loopedit_minVelocity = 0.250                                                                                            
# loopedit_surfaceSoak: minDepth = 5.0, maxDepth = 20, useDeckPress = 1                                                   
# loopedit_excl_bad_scans = yes
# binavg_date = Jan 18 2011 10:09:29, 7.18
# binavg_in = X:\piratax\proc_data\pirx003.cnv
# binavg_bintype = decibars
# binavg_binsize = 1
# binavg_excl_bad_scans = no
# binavg_skipover = 0
# binavg_surface_bin = no, min = 0.000, max = 0.000, value = 0.000
# Derive_date = Jan 18 2011 10:09:40, 7.18
# Derive_in = X:\piratax\proc_data\pirx003.cnv X:\piratax\raw_data\PIRX003.con
# strip_date = Jan 18 2011 10:09:43, 7.18
# strip_in = X:\piratax\proc_data\pirx003.cnv
# split_date = Jan 18 2011 10:09:47, 7.18
# split_in = X:\piratax\proc_data\pirx003.cnv
# split_excl_bad_scans = yes
# file_type = ascii
*END*
    246.446    162.000    15.8635    15.7969   4.468541   4.497739    15.8372    15.7713    35.7561    36.0788 0.0000e+00
    249.417    163.000    15.4798    15.5144   4.459094   4.460689    15.4545    15.4889    36.0197    36.0024 0.0000e+00
    250.462    164.000    15.3983    15.4179   4.444983   4.448821    15.3729    15.3924    35.9660    35.9829 0.0000e+00
    251.428    165.000    15.2930    15.3232   4.432046   4.436992    15.2675    15.2977    35.9446    35.9618 0.0000e+00
    252.285    166.000    15.1721    15.1983   4.417620   4.422013    15.1466    15.1728    35.9237    35.9397 0.0000e+00
    253.022    167.000    15.0904    15.1154   4.407860   4.411947    15.0648    15.0898    35.9093    35.9236 0.0000e+00
    253.726    168.000    15.0685    15.0760   4.405100   4.407495    15.0429    15.0503    35.9038    35.9188 0.0000e+00
    255.698    169.000    15.0887    15.0842   4.407459   4.408533    15.0629    15.0583    35.9063    35.9203 0.0000e+00
    258.485    170.000    15.0373    15.0535   4.401361   4.404800    15.0113    15.0275    35.8975    35.9141 0.0000e+00
    259.273    171.000    15.0092    15.0212   4.397880   4.400808    14.9831    14.9951    35.8911    35.9068 0.0000e+00
    260.214    172.000    14.9356    14.9611   4.388741   4.393652    14.9094    14.9349    35.8747    35.8962 0.0000e+00
    262.705    173.000    14.8848    14.8273   4.382917   4.377620    14.8586    14.8012    35.8676    35.8719 0.0000e+00
    264.002    174.000    14.7707    14.7881   4.369491   4.372802    14.7444    14.7618    35.8491    35.8634 0.0000e+00
    264.511    175.000    14.7372    14.7453   4.365445   4.367788    14.7109    14.7190    35.8422    35.8563 0.0000e+00
    265.043    176.000    14.7144    14.7223   4.362862   4.365243    14.6880    14.6958    35.8391    35.8537 0.0000e+00
    266.102    177.000    14.7371    14.7371   4.365340   4.367198    14.7104    14.7104    35.8406    35.8577 0.0000e+00
    266.628    178.000    14.7380    14.7438   4.365672   4.367778    14.7112    14.7170    35.8423    35.8564 0.0000e+00
    266.724    179.000    14.7466    14.7413   4.371230   4.367574    14.7197    14.7143    35.8851    35.8565 0.0000e+00
    266.773    180.000    14.7556    14.7404   4.384566   4.367448    14.7285    14.7133    35.9991    35.8557 0.0000e+00
 -9.990e-29    181.000 -9.990e-29 -9.990e-29 -9.990e-29 -9.990e-29 -9.990e-29 -9.990e-29 -9.990e-29 -9.990e-29 -9.990e-29
    273.789    182.000    14.4716    14.4535   4.333964   4.334098    14.4446    14.4265    35.7940    35.8120 0.0000e+00
    275.955    183.000    14.3595    14.3612   4.321465   4.323177    14.3325    14.3341    35.7815    35.7958 0.0000e+00
    279.089    184.000    14.2909    14.2561   4.313241   4.310931    14.2638    14.2290    35.7683    35.7790 0.0000e+00
    282.054    185.000    14.2038    14.2155   4.303182   4.306087    14.1766    14.1883    35.7551    35.7712 0.0000e+00
    282.734    186.000    14.2014    14.2098   4.302933   4.305508    14.1741    14.1825    35.7545    35.7707 0.0000e+00
    283.285    187.000    14.1826    14.1897   4.300851   4.303106    14.1551    14.1622    35.7522    35.7666 0.0000e+00
    283.775    188.000    14.1519    14.1472   4.297400   4.298174    14.1244    14.1197    35.7480    35.7596 0.0000e+00
    284.306    189.000    14.1061    14.1107   4.292470   4.294425    14.0785    14.0830    35.7442    35.7581 0.0000e+00
    286.510    190.000    14.1113    14.1068   4.292880   4.294057    14.0835    14.0790    35.7427    35.7579 0.0000e+00
    288.259    191.000    13.9994    14.0247   4.280622   4.284533    13.9716    13.9969    35.7318    35.7448 0.0000e+00
    288.793    192.000    13.9268    13.9437   4.272192   4.275329    13.8990    13.9158    35.7200    35.7337 0.0000e+00
    289.467    193.000    13.9169    13.9244   4.270872   4.273338    13.8890    13.8964    35.7164    35.7325 0.0000e+00
    292.296    194.000    13.9426    13.9359   4.273882   4.274750    13.9145    13.9077    35.7203    35.7346 0.0000e+00
    293.165    195.000    13.8884    13.8993   4.267810   4.270538    13.8602    13.8711    35.7134    35.7287 0.0000e+00
    293.613    196.000    13.8813    13.8854   4.266973   4.269083    13.8529    13.8571    35.7117    35.7276 0.0000e+00
    294.329    197.000    13.8767    13.8824   4.266507   4.268813    13.8483    13.8539    35.7112    35.7275 0.0000e+00
    296.998    198.000    13.8763    13.8810   4.266571   4.268693    13.8477    13.8523    35.7118    35.7273 0.0000e+00
    297.528    199.000    13.8266    13.8377   4.261124   4.263884    13.7979    13.8090    35.7065    35.7221 0.0000e+00
    298.053    200.000    13.8133    13.8221   4.259573   4.262156    13.7845    13.7933    35.7039    35.7199 0.0000e+00
    298.601    201.000    13.8016    13.8120   4.258263   4.261019    13.7727    13.7830    35.7020    35.7182 0.0000e+00
    299.366    202.000    13.7908    13.7980   4.257037   4.259503    13.7617    13.7689    35.7002    35.7167 0.0000e+00
    301.481    203.000    13.8016    13.7964   4.258281   4.259434    13.7723    13.7672    35.7014    35.7170 0.0000e+00
    303.446    204.000    13.7792    13.7892   4.256042   4.258780    13.7499    13.7598    35.7008    35.7172 0.0000e+00
    304.378    205.000    13.7560    13.7660   4.253509   4.256234    13.7266    13.7365    35.6982    35.7145 0.0000e+00
    305.467    206.000    13.7492    13.7560   4.252755   4.255204    13.7196    13.7264    35.6971    35.7137 0.0000e+00
    307.092    207.000    13.7339    13.7423   4.251023   4.253653    13.7042    13.7126    35.6946    35.7115 0.0000e+00
    308.184    208.000    13.6707    13.6852   4.243835   4.247028    13.6409    13.6554    35.6855    35.7020 0.0000e+00
    308.845    209.000    13.6328    13.6436   4.239485   4.242053    13.6029    13.6137    35.6794    35.6935 0.0000e+00
    309.391    210.000    13.5703    13.5713   4.232257   4.233272    13.5403    13.5413    35.6692    35.6778 0.0000e+00
    309.872    211.000    13.4789    13.4742   4.221553   4.221880    13.4490    13.4442    35.6530    35.6605 0.0000e+00
    310.354    212.000    13.3599    13.3550   4.207714   4.207798    13.3300    13.3251    35.6328    35.6382 0.0000e+00
    311.071    213.000    13.3482    13.3465   4.205659   4.207171    13.3182    13.3165    35.6238    35.6398 0.0000e+00
    311.944    214.000    13.5401    13.5069   4.227251   4.226780    13.5096    13.4765    35.6484    35.6750 0.0000e+00
    312.016    215.000    13.4947    13.4779   4.210002   4.222489    13.4643    13.4474    35.5274    35.6611 0.0000e+00
    312.089    216.000    13.4828    13.4606   4.074013   4.220255    13.4526    13.4300    34.2571    35.6557 0.0000e+00
    312.135    217.000    13.4936    13.4464   3.761122   4.218952    13.4640    13.4157    31.3278    35.6562 0.0000e+00
    312.169    218.000    13.4561    13.4318   3.719279   4.217446    13.4265    13.4010    30.9703    35.6552 0.0000e+00
    321.574    219.000    13.1817    13.1955   4.205018   4.189937    13.1510    13.1649    35.7715    35.6149 0.0000e+00
    322.197    220.000    13.1564    13.1672   4.184411   4.186735    13.1257    13.1365    35.5986    35.6106 0.0000e+00
    322.784    221.000    13.1393    13.1469   4.182183   4.184614    13.1085    13.1160    35.5930    35.6090 0.0000e+00
    323.404    222.000    13.1297    13.1358   4.181260   4.183595    13.0988    13.1048    35.5928    35.6093 0.0000e+00
    324.176    223.000    13.1238    13.1279   4.180707   4.182785    13.0928    13.0968    35.5926    35.6086 0.0000e+00
    325.945    224.000    13.0975    13.0894   4.177743   4.178447    13.0663    13.0583    35.5886    35.6028 0.0000e+00
    327.761    225.000    13.0396    13.0521   4.171204   4.174221    13.0084    13.0208    35.5801    35.5972 0.0000e+00
    328.587    226.000    13.0209    13.0301   4.169164   4.171789    12.9896    12.9988    35.5777    35.5941 0.0000e+00
    329.330    227.000    13.0194    13.0260   4.169312   4.171729    12.9880    12.9945    35.5801    35.5971 0.0000e+00
    330.165    228.000    13.0063    13.0128   4.168058   4.170420    12.9747    12.9812    35.5801    35.5965 0.0000e+00
    331.157    229.000    12.9788    12.9857   4.164883   4.167364    12.9471    12.9540    35.5751    35.5924 0.0000e+00
    332.181    230.000    12.9579    12.9643   4.162556   4.164980    12.9262    12.9325    35.5720    35.5892 0.0000e+00
    333.473    231.000    12.9508    12.9553   4.161812   4.163989    12.9189    12.9233    35.5712    35.5878 0.0000e+00
    335.351    232.000    12.9425    12.9487   4.160975   4.163320    12.9105    12.9167    35.5705    35.5871 0.0000e+00
    336.654    233.000    12.9393    12.9457   4.160655   4.163075    12.9072    12.9135    35.5700    35.5872 0.0000e+00
    337.550    234.000    12.9387    12.9444   4.160665   4.162998    12.9064    12.9121    35.5703    35.5872 0.0000e+00
    338.353    235.000    12.9374    12.9431   4.160587   4.162908    12.9049    12.9106    35.5704    35.5872 0.0000e+00
    339.044    236.000    12.9367    12.9424   4.160564   4.162883    12.9042    12.9098    35.5703    35.5872 0.0000e+00
    339.642    237.000    12.9331    12.9381   4.160226   4.162444    12.9004    12.9053    35.5701    35.5866 0.0000e+00
    340.214    238.000    12.9166    12.9250   4.158451   4.160977    12.8837    12.8921    35.5682    35.5845 0.0000e+00
    340.843    239.000    12.9000    12.9073   4.156624   4.159003    12.8670    12.8744    35.5659    35.5817 0.0000e+00
    343.459    240.000    12.8976    12.8984   4.156553   4.158067    12.8645    12.8654    35.5670    35.5807 0.0000e+00
    345.912    241.000    12.8363    12.8488   4.149453   4.152433    12.8032    12.8157    35.5562    35.5730 0.0000e+00
    346.547    242.000    12.8075    12.8160   4.146282   4.148727    12.7743    12.7828    35.5524    35.5679 0.0000e+00
    348.030    243.000    12.8115    12.8073   4.146643   4.147817    12.7781    12.7740    35.5517    35.5669 0.0000e+00
    349.807    244.000    12.7228    12.7409   4.136711   4.140146    12.6895    12.7076    35.5394    35.5554 0.0000e+00
    350.316    245.000    12.7094    12.7168   4.135169   4.137548    12.6759    12.6833    35.5368    35.5527 0.0000e+00
    350.781    246.000    12.7045    12.7102   4.134591   4.136898    12.6709    12.6766    35.5354    35.5522 0.0000e+00
    351.212    247.000    12.6985    12.7038   4.133979   4.136160    12.6648    12.6701    35.5348    35.5507 0.0000e+00
    351.638    248.000    12.6739    12.6798   4.131289   4.133346    12.6401    12.6460    35.5316    35.5458 0.0000e+00
    353.389    249.000    12.6592    12.6586   4.129123   4.130970    12.6253    12.6247    35.5242    35.5425 0.0000e+00
    355.762    250.000    12.6031    12.5993   4.123222   4.124245    12.5692    12.5653    35.5198    35.5333 0.0000e+00
    356.365    251.000    12.5628    12.5743   4.118602   4.121418    12.5288    12.5403    35.5129    35.5291 0.0000e+00
    357.089    252.000    12.5386    12.5491   4.115785   4.118636    12.5045    12.5150    35.5081    35.5256 0.0000e+00
    358.033    253.000    12.5100    12.5216   4.112710   4.115592    12.4759    12.4874    35.5049    35.5218 0.0000e+00
    359.005    254.000    12.4576    12.4679   4.106712   4.109346    12.4234    12.4336    35.4960    35.5118 0.0000e+00
    359.841    255.000    12.4015    12.4118   4.100330   4.103033    12.3673    12.3775    35.4869    35.5033 0.0000e+00
    362.020    256.000    12.3949    12.3948   4.099585   4.101214    12.3606    12.3604    35.4854    35.5014 0.0000e+00
    365.310    257.000    12.3568    12.3679   4.095338   4.098199    12.3223    12.3335    35.4799    35.4971 0.0000e+00
    366.432    258.000    12.3369    12.3464   4.093161   4.095850    12.3024    12.3118    35.4772    35.4943 0.0000e+00
    368.387    259.000    12.3269    12.3295   4.092065   4.093995    12.2923    12.2948    35.4756    35.4919 0.0000e+00
    372.455    260.000    12.3048    12.3081   4.089665   4.091717    12.2701    12.2734    35.4728    35.4896 0.0000e+00
    373.945    261.000    12.2835    12.2923   4.087368   4.089924    12.2487    12.2574    35.4702    35.4867 0.0000e+00
    374.661    262.000    12.2682    12.2743   4.085701   4.087977    12.2333    12.2394    35.4681    35.4844 0.0000e+00
    377.078    263.000    12.2664    12.2664   4.085496   4.087189    12.2313    12.2314    35.4674    35.4838 0.0000e+00
    380.647    264.000    12.2462    12.2528   4.083302   4.085707    12.2111    12.2176    35.4647    35.4819 0.0000e+00
    381.883    265.000    12.2124    12.2192   4.079550   4.081946    12.1772    12.1839    35.4599    35.4767 0.0000e+00
    383.133    266.000    12.1935    12.1964   4.077433   4.079471    12.1582    12.1611    35.4567    35.4738 0.0000e+00
    385.350    267.000    12.1802    12.1798   4.075993   4.077599    12.1448    12.1444    35.4549    35.4709 0.0000e+00
    386.325    268.000    12.1551    12.1633   4.073248   4.075789    12.1196    12.1278    35.4515    35.4685 0.0000e+00
    387.219    269.000    12.1490    12.1549   4.072624   4.074935    12.1134    12.1192    35.4508    35.4677 0.0000e+00
    390.929    270.000    12.1522    12.1528   4.072967   4.074731    12.1164    12.1170    35.4507    35.4673 0.0000e+00
    392.698    271.000    12.1326    12.1423   4.070921   4.073548    12.0967    12.1063    35.4489    35.4653 0.0000e+00
    393.378    272.000    12.1143    12.1207   4.068822   4.071165    12.0783    12.0847    35.4454    35.4621 0.0000e+00
    394.730    273.000    12.1045    12.1010   4.067697   4.068946    12.0684    12.0649    35.4433    35.4587 0.0000e+00
    397.040    274.000    12.0709    12.0783   4.063895   4.066293    12.0348    12.0421    35.4376    35.4540 0.0000e+00
    398.266    275.000    12.0304    12.0350   4.059481   4.061568    11.9942    11.9987    35.4325    35.4486 0.0000e+00
    400.135    276.000    12.0073    12.0107   4.056909   4.058885    11.9710    11.9743    35.4289    35.4450 0.0000e+00
    401.153    277.000    11.9662    11.9794   4.052341   4.055341    11.9299    11.9430    35.4228    35.4396 0.0000e+00
    404.205    278.000    11.9583    11.9483   4.051474   4.052064    11.9219    11.9118    35.4214    35.4368 0.0000e+00
    405.840    279.000    11.9319    11.9369   4.048584   4.050806    11.8953    11.9003    35.4179    35.4348 0.0000e+00
    406.775    280.000    11.9311    11.9363   4.048533   4.050802    11.8944    11.8996    35.4177    35.4349 0.0000e+00
    408.006    281.000    11.9236    11.9287   4.047768   4.050013    11.8868    11.8919    35.4168    35.4340 0.0000e+00
    410.510    282.000    11.9079    11.9064   4.045995   4.047502    11.8710    11.8695    35.4140    35.4302 0.0000e+00
    412.000    283.000    11.8802    11.8879   4.042941   4.045408    11.8432    11.8510    35.4100    35.4268 0.0000e+00
    412.690    284.000    11.8605    11.8675   4.040840   4.043169    11.8235    11.8304    35.4076    35.4239 0.0000e+00
    414.928    285.000    11.8455    11.8435   4.039124   4.040555    11.8083    11.8063    35.4047    35.4207 0.0000e+00
    417.993    286.000    11.8126    11.8204   4.035450   4.037985    11.7753    11.7831    35.3996    35.4170 0.0000e+00
    418.668    287.000    11.8069    11.8118   4.034851   4.037028    11.7696    11.7744    35.3986    35.4154 0.0000e+00
    419.506    288.000    11.7914    11.7954   4.033103   4.035220    11.7540    11.7580    35.3958    35.4127 0.0000e+00
    422.518    289.000    11.7735    11.7714   4.031106   4.032478    11.7360    11.7338    35.3928    35.4083 0.0000e+00
    424.842    290.000    11.7258    11.7342   4.025699   4.028317    11.6882    11.6966    35.3847    35.4024 0.0000e+00
    425.676    291.000    11.7222    11.7284   4.025333   4.027678    11.6845    11.6907    35.3841    35.4011 0.0000e+00
    426.495    292.000    11.7227    11.7278   4.025438   4.027689    11.6848    11.6900    35.3842    35.4014 0.0000e+00
    428.613    293.000    11.7249    11.7294   4.025754   4.027949    11.6870    11.6914    35.3847    35.4020 0.0000e+00
    431.232    294.000    11.7180    11.7248   4.025066   4.027501    11.6799    11.6867    35.3841    35.4015 0.0000e+00
    432.196    295.000    11.7108    11.7170   4.024305   4.026663    11.6726    11.6788    35.3831    35.4002 0.0000e+00
    433.085    296.000    11.7050    11.7109   4.023663   4.026009    11.6667    11.6726    35.3818    35.3992 0.0000e+00
    435.870    297.000    11.6973    11.6971   4.022842   4.024501    11.6588    11.6587    35.3807    35.3971 0.0000e+00
    437.930    298.000    11.6835    11.6885   4.021343   4.023585    11.6450    11.6499    35.3786    35.3959 0.0000e+00
    439.979    299.000    11.6746    11.6745   4.020379   4.022010    11.6359    11.6358    35.3772    35.3933 0.0000e+00
    441.196    300.000    11.6344    11.6450   4.015975   4.018728    11.5957    11.6063    35.3717    35.3887 0.0000e+00
    442.749    301.000    11.6314    11.6301   4.015619   4.017136    11.5926    11.5913    35.3706    35.3868 0.0000e+00
    445.066    302.000    11.6130    11.6201   4.013610   4.015995    11.5742    11.5812    35.3678    35.3846 0.0000e+00
    445.886    303.000    11.5783    11.5879   4.009752   4.012343    11.5394    11.5490    35.3625    35.3788 0.0000e+00
    448.992    304.000    11.5822    11.5767   4.010123   4.011217    11.5432    11.5376    35.3619    35.3781 0.0000e+00
    451.494    305.000    11.5620    11.5641   4.007905   4.009813    11.5228    11.5249    35.3590    35.3757 0.0000e+00
    454.130    306.000    11.5203    11.5341   4.003385   4.006401    11.4811    11.4948    35.3537    35.3703 0.0000e+00
    454.856    307.000    11.4939    11.5019   4.000469   4.002953    11.4546    11.4626    35.3497    35.3665 0.0000e+00
    456.387    308.000    11.4947    11.4963   4.000552   4.002413    11.4553    11.4569    35.3493    35.3661 0.0000e+00
    458.665    309.000    11.4761    11.4830   3.998583   4.000988    11.4366    11.4435    35.3471    35.3643 0.0000e+00
    461.840    310.000    11.4606    11.4583   3.996908   3.998303    11.4210    11.4187    35.3449    35.3609 0.0000e+00
    463.478    311.000    11.4420    11.4493   3.994915   3.997331    11.4024    11.4096    35.3425    35.3594 0.0000e+00
    464.267    312.000    11.4228    11.4307   3.992779   3.995234    11.3830    11.3909    35.3393    35.3561 0.0000e+00
    465.405    313.000    11.3988    11.4027   3.990088   3.992142    11.3590    11.3628    35.3352    35.3517 0.0000e+00
    467.027    314.000    11.3654    11.3682   3.986367   3.988212    11.3256    11.3283    35.3297    35.3454 0.0000e+00
    469.794    315.000    11.3453    11.3451   3.984076   3.985742    11.3053    11.3052    35.3259    35.3425 0.0000e+00
    471.338    316.000    11.3146    11.3226   3.980770   3.983250    11.2746    11.2826    35.3219    35.3389 0.0000e+00
    472.236    317.000    11.3037    11.3096   3.979642   3.981919    11.2636    11.2695    35.3207    35.3377 0.0000e+00
    475.602    318.000    11.2934    11.2929   3.978514   3.980065    11.2532    11.2526    35.3190    35.3348 0.0000e+00
    477.222    319.000    11.2758    11.2810   3.976647   3.978790    11.2355    11.2407    35.3168    35.3331 0.0000e+00
    477.748    320.000    11.2524    11.2589   3.974106   3.976241    11.2120    11.2185    35.3135    35.3285 0.0000e+00
    480.721    321.000    11.2513    11.2494   3.973666   3.975288    11.2108    11.2089    35.3098    35.3277 0.0000e+00
    483.758    322.000    11.2242    11.2302   3.970826   3.973154    11.1837    11.1896    35.3070    35.3244 0.0000e+00
    484.841    323.000    11.2183    11.2243   3.970198   3.972510    11.1776    11.1835    35.3060    35.3233 0.0000e+00
    485.744    324.000    11.2125    11.2187   3.969576   3.971905    11.1717    11.1778    35.3050    35.3222 0.0000e+00
    486.554    325.000    11.2066    11.2118   3.968961   3.971155    11.1657    11.1709    35.3040    35.3209 0.0000e+00
    489.696    326.000    11.1970    11.1986   3.967888   3.969707    11.1560    11.1575    35.3021    35.3187 0.0000e+00
    493.401    327.000    11.1737    11.1819   3.965368   3.967847    11.1326    11.1407    35.2989    35.3158 0.0000e+00
    493.971    328.000    11.1597    11.1657   3.963861   3.966056    11.1185    11.1244    35.2969    35.3130 0.0000e+00
    494.584    329.000    11.1478    11.1528   3.962533   3.964683    11.1065    11.1115    35.2947    35.3112 0.0000e+00
    495.268    330.000    11.1333    11.1393   3.960943   3.963154    11.0919    11.0979    35.2922    35.3085 0.0000e+00
    496.264    331.000    11.1140    11.1198   3.958800   3.961008    11.0726    11.0783    35.2889    35.3054 0.0000e+00
    500.265    332.000    11.0779    11.0744   3.954677   3.955854    11.0364    11.0329    35.2820    35.2971 0.0000e+00
    502.233    333.000    11.0265    11.0354   3.949125   3.951450    10.9850    10.9939    35.2755    35.2901 0.0000e+00
    502.742    334.000    10.9851    10.9889   3.944568   3.946201    10.9436    10.9474    35.2692    35.2818 0.0000e+00
    503.321    335.000    10.9355    10.9446   3.938962   3.941365    10.8940    10.9031    35.2603    35.2756 0.0000e+00
    506.094    336.000    10.9661    10.9574   3.942206   3.942959    10.9244    10.9157    35.2630    35.2789 0.0000e+00
    508.706    337.000    10.9143    10.9202   3.936600   3.938856    10.8726    10.8785    35.2562    35.2731 0.0000e+00
    509.260    338.000    10.9096    10.9147   3.936096   3.938285    10.8677    10.8728    35.2552    35.2722 0.0000e+00
    510.004    339.000    10.9089    10.9136   3.936055   3.938213    10.8669    10.8716    35.2550    35.2721 0.0000e+00
    512.354    340.000    10.9084    10.9126   3.936037   3.938140    10.8663    10.8705    35.2549    35.2719 0.0000e+00
    515.199    341.000    10.9007    10.9036   3.935216   3.937179    10.8585    10.8613    35.2536    35.2705 0.0000e+00
    517.007    342.000    10.8974    10.9031   3.934924   3.937178    10.8551    10.8607    35.2534    35.2705 0.0000e+00
    517.915    343.000    10.8900    10.8960   3.934133   3.936382    10.8476    10.8536    35.2521    35.2689 0.0000e+00
    518.575    344.000    10.8838    10.8887   3.933444   3.935573    10.8412    10.8461    35.2508    35.2674 0.0000e+00
    519.188    345.000    10.8741    10.8767   3.932370   3.934208    10.8315    10.8341    35.2488    35.2648 0.0000e+00
    521.538    346.000    10.8753    10.8693   3.931983   3.934482    10.8326    10.8266    35.2434    35.2742 0.0000e+00
    523.592    347.000    10.8864    10.8529   3.934126   3.935575    10.8435    10.8101    35.2537    35.3004 0.0000e+00
    525.054    348.000    10.8891    10.8537   3.934393   3.935956    10.8460    10.8107    35.2534    35.3031 0.0000e+00
    528.339    349.000    10.8488    10.8742   3.935034   3.937072    10.8057    10.8311    35.2981    35.2940 0.0000e+00
    529.213    350.000    10.8925    10.8768   3.934858   3.937037    10.8492    10.8335    35.2539    35.2907 0.0000e+00
    530.101    351.000    10.8339    10.8291   3.934753   3.937151    10.7906    10.7858    35.3087    35.3374 0.0000e+00
    530.945    352.000    10.8571    10.7540   3.934850   3.937307    10.8136    10.7107    35.2869    35.4109 0.0000e+00
    533.064    353.000    10.8879    10.8721   3.934946   3.937373    10.8442    10.8284    35.2579    35.2973 0.0000e+00
    535.559    354.000    10.8911    10.8951   3.934798   3.937230    10.8473    10.8513    35.2528    35.2733 0.0000e+00
    537.779    355.000    10.7722    10.8965   3.934834   3.936989    10.7285    10.8525    35.3672    35.2692 0.0000e+00
    538.886    356.000    10.8532    10.8862   3.934078   3.936417    10.8093    10.8422    35.2811    35.2728 0.0000e+00
    539.945    357.000    10.7605    10.8898   3.934382   3.935329    10.7166    10.8456    35.3730    35.2581 0.0000e+00
    541.115    358.000    10.7430    10.8881   3.934576   3.934309    10.6990    10.8438    35.3914    35.2490 0.0000e+00
    543.051    359.000    10.7867    10.8698   3.934531   3.932830    10.7424    10.8254    35.3484    35.2514 0.0000e+00
    545.914    360.000    10.7279    10.8601   3.934472   3.931366    10.6837    10.8156    35.4040    35.2456 0.0000e+00
    546.821    361.000    10.8389    10.7540   3.933988   3.932076    10.7944    10.7096    35.2917    35.3543 0.0000e+00
    549.336    362.000    10.8818    10.7572   3.932662   3.928327    10.8371    10.7132    35.2368    35.3132 0.0000e+00
    552.103    363.000    10.8468    10.6435   3.927703   3.923120    10.8020    10.5991    35.2203    35.3701 0.0000e+00
    552.634    364.000    10.8289    10.6382   3.926304   3.917684    10.7840    10.5938    35.2231    35.3200 0.0000e+00
    553.149    365.000    10.8166    10.6350   3.925498   3.914296    10.7716    10.5905    35.2263    35.2885 0.0000e+00
    555.410    366.000    10.7784    10.6975   3.921199   3.922640    10.7334    10.6533    35.2194    35.3118 0.0000e+00
    557.947    367.000    10.7417    10.6154   3.918423   3.921685    10.6967    10.5706    35.2264    35.3810 0.0000e+00
    558.579    368.000    10.7507    10.5862   3.917359   3.911595    10.7055    10.5414    35.2066    35.3071 0.0000e+00
    560.183    369.000    10.7258    10.6240   3.915700   3.914110    10.6806    10.5789    35.2134    35.2955 0.0000e+00
    562.419    370.000    10.7105    10.5599   3.913275   3.919164    10.6651    10.5148    35.2034    35.4080 0.0000e+00
    563.089    371.000    10.6989    10.5020   3.911824   3.907339    10.6535    10.4570    35.1995    35.3442 0.0000e+00
    563.777    372.000    10.6820    10.4756   3.911206   3.901365    10.6365    10.4306    35.2091    35.3090 0.0000e+00
    564.706    373.000    10.6794    10.4771   3.911273   3.909059    10.6338    10.4319    35.2118    35.3848 0.0000e+00
    566.721    374.000    10.5195    10.4724   3.913053   3.913437    10.4741    10.4271    35.3836    35.4332 0.0000e+00
    569.084    375.000    10.4453    10.5302   3.913852   3.914229    10.4000    10.4846    35.4632    35.3847 0.0000e+00
    571.302    376.000    10.6054    10.6633   3.911980   3.917403    10.5596    10.6174    35.2888    35.2876 0.0000e+00
    573.461    377.000    10.6541    10.5583   3.910404   3.917186    10.6081    10.5124    35.2256    35.3864 0.0000e+00
    574.054    378.000    10.6708    10.3949   3.909107   3.912391    10.6246    10.3493    35.1961    35.4962 0.0000e+00
    574.708    379.000    10.6526    10.4017   3.908267   3.898561    10.6063    10.3561    35.2047    35.3490 0.0000e+00
    576.771    380.000    10.6139    10.4855   3.907312   3.907513    10.5676    10.4395    35.2318    35.3579 0.0000e+00
    579.830    381.000    10.5437    10.6265   3.905077   3.915115    10.4974    10.5800    35.2766    35.2979 0.0000e+00
    580.783    382.000    10.5940    10.5451   3.904230   3.914357    10.5475    10.4986    35.2191    35.3684 0.0000e+00
    581.766    383.000    10.6241    10.6098   3.903228   3.913820    10.5774    10.5631    35.1796    35.3000 0.0000e+00
    582.623    384.000    10.6033    10.5151   3.902134   3.912339    10.5565    10.4685    35.1881    35.3762 0.0000e+00
    584.487    385.000    10.5682    10.4774   3.898463   3.908828    10.5214    10.4308    35.1845    35.3768 0.0000e+00
    586.658    386.000    10.5352    10.2651   3.894004   3.900777    10.4884    10.2189    35.1708    35.5012 0.0000e+00
    587.185    387.000    10.4789    10.2560   3.892766   3.890307    10.4321    10.2097    35.2121    35.4032 0.0000e+00
    587.728    388.000    10.4257    10.2527   3.892619   3.886399    10.3789    10.2063    35.2616    35.3663 0.0000e+00
    588.393    389.000    10.4935    10.2480   3.892313   3.885148    10.4464    10.2015    35.1926    35.3576 0.0000e+00
    590.807    390.000    10.4513    10.3234   3.890399   3.897281    10.4042    10.2766    35.2135    35.4071 0.0000e+00
    593.514    391.000    10.4586    10.4908   3.890607   3.901109    10.4113    10.4434    35.2082    35.2832 0.0000e+00
    594.913    392.000    10.4345    10.5301   3.889329   3.900343    10.3872    10.4825    35.2180    35.2370 0.0000e+00
    596.633    393.000    10.4313    10.5275   3.887884   3.896810    10.3839    10.4799    35.2061    35.2034 0.0000e+00
    599.629    394.000    10.3617    10.4781   3.886056   3.889822    10.3143    10.4304    35.2544    35.1801 0.0000e+00
    600.399    395.000    10.3610    10.3520   3.885630   3.891509    10.3135    10.3045    35.2503    35.3185 0.0000e+00
    601.126    396.000    10.4420    10.2787   3.884363   3.890372    10.3942    10.2313    35.1588    35.3777 0.0000e+00
    601.813    397.000    10.4225    10.2742   3.882068   3.882507    10.3747    10.2267    35.1539    35.3018 0.0000e+00
    603.275    398.000    10.3941    10.2981   3.880318   3.885615    10.3462    10.2504    35.1631    35.3097 0.0000e+00
    605.866    399.000    10.3576    10.4176   3.879318   3.888860    10.3097    10.3695    35.1878    35.2264 0.0000e+00
    608.327    400.000    10.3728    10.3448   3.878027   3.885530    10.3247    10.2968    35.1597    35.2626 0.0000e+00
    609.648    401.000    10.3423    10.2212   3.875465   3.881335    10.2942    10.1734    35.1627    35.3395 0.0000e+00
    610.039    402.000    10.3300    10.2237   3.875484   3.878010    10.2818    10.1758    35.1743    35.3028 0.0000e+00
    610.510    403.000    10.3280    10.2222   3.875295   3.876928    10.2796    10.1741    35.1739    35.2929 0.0000e+00
    612.991    404.000    10.3174    10.3072   3.873990   3.880562    10.2690    10.2587    35.1704    35.2469 0.0000e+00
    617.919    405.000    10.2188    10.3556   3.875326   3.878101    10.1705    10.3069    35.2790    35.1748 0.0000e+00
    618.749    406.000    10.2493    10.3183   3.874710   3.877694    10.2008    10.2697    35.2427    35.2061 0.0000e+00
    619.582    407.000    10.3091    10.2432   3.873682   3.878768    10.2603    10.1946    35.1740    35.2893 0.0000e+00
    620.464    408.000    10.3144    10.2064   3.873335   3.879386    10.2655    10.1578    35.1649    35.3309 0.0000e+00
    622.858    409.000    10.2779    10.3324   3.872873   3.876542    10.2290    10.2833    35.1950    35.1796 0.0000e+00
    624.519    410.000    10.2851    10.2663   3.872569   3.875751    10.2360    10.2172    35.1845    35.2350 0.0000e+00
    627.041    411.000    10.2703    10.2891   3.871882   3.874908    10.2212    10.2400    35.1914    35.2039 0.0000e+00
    629.540    412.000    10.2848    10.1874   3.871109   3.875002    10.2356    10.1383    35.1690    35.3030 0.0000e+00
    630.164    413.000    10.2776    10.1505   3.870227   3.871126    10.2282    10.1014    35.1666    35.2989 0.0000e+00
    632.499    414.000    10.2409    10.2196   3.868587   3.871720    10.1915    10.1702    35.1851    35.2375 0.0000e+00
    634.672    415.000    10.2539    10.1627   3.867315   3.872526    10.2044    10.1134    35.1591    35.3004 0.0000e+00
    635.257    416.000    10.2414    10.0947   3.866295   3.865181    10.1917    10.0454    35.1604    35.2912 0.0000e+00
    635.874    417.000    10.2313    10.0664   3.865566   3.858660    10.1816    10.0171    35.1623    35.2519 0.0000e+00
    636.625    418.000    10.2254    10.0586   3.865417   3.860091    10.1756    10.0092    35.1660    35.2735 0.0000e+00
    639.294    419.000    10.1848    10.0361   3.860021   3.867393    10.1349     9.9866    35.1500    35.3695 0.0000e+00
    640.112    420.000    10.1603    10.0079   3.858526   3.860992    10.1105     9.9584    35.1580    35.3312 0.0000e+00
    641.951    421.000    10.1296    10.1024   3.858033   3.864933    10.0797    10.0525    35.1823    35.2790 0.0000e+00
    644.740    422.000    10.1292    10.2111   3.856866   3.867476    10.0792    10.1608    35.1704    35.1990 0.0000e+00
    646.136    423.000    10.1573    10.2161   3.856711   3.864847    10.1071    10.1656    35.1412    35.1670 0.0000e+00
    647.740    424.000    10.1367    10.1943   3.856453   3.862565    10.0864    10.1439    35.1580    35.1644 0.0000e+00
    650.504    425.000     9.9859    10.1634   3.857124   3.859967     9.9359    10.1129    35.3108    35.1674 0.0000e+00
    651.571    426.000    10.0313    10.0058   3.856455   3.860554     9.9810     9.9556    35.2594    35.3260 0.0000e+00
    652.197    427.000    10.1324     9.8960   3.855453   3.855958    10.0818     9.8459    35.1506    35.3858 0.0000e+00
    652.970    428.000    10.1245     9.8861   3.854254   3.846923    10.0737     9.8360    35.1456    35.3024 0.0000e+00
    656.103    429.000    10.0773    10.0702   3.851264   3.858682    10.0266    10.0195    35.1604    35.2429 0.0000e+00
    657.270    430.000    10.0795     9.9679   3.849870   3.857125    10.0287     9.9173    35.1436    35.3261 0.0000e+00
    660.226    431.000     9.9996    10.1437   3.848633   3.854827     9.9488    10.0925    35.2081    35.1315 0.0000e+00
    661.794    432.000    10.0310    10.0047   3.847447   3.852910     9.9800     9.9538    35.1650    35.2463 0.0000e+00
    662.625    433.000    10.0637     9.8439   3.847160   3.854202    10.0126     9.7933    35.1299    35.4160 0.0000e+00
    663.552    434.000    10.0480     9.8493   3.846182   3.854159     9.9968     9.7986    35.1348    35.4098 0.0000e+00
    664.669    435.000     9.9955    10.0257   3.845692   3.852727     9.9443     9.9744    35.1802    35.2227 0.0000e+00
    667.325    436.000     9.9459    10.0536   3.845541   3.848729     9.8947    10.0021    35.2264    35.1544 0.0000e+00
    670.208    437.000    10.0252     9.8980   3.842565   3.846918     9.9737     9.8468    35.1186    35.2867 0.0000e+00
    670.941    438.000    10.0034     9.8069   3.840819   3.845268     9.9518     9.7559    35.1214    35.3582 0.0000e+00
    672.552    439.000     9.9724     9.8366   3.839344   3.844852     9.9208     9.7853    35.1360    35.3245 0.0000e+00
    674.765    440.000     9.8997     9.9636   3.838843   3.845550     9.8482     9.9118    35.2010    35.2075 0.0000e+00
    675.689    441.000     9.9660     9.8728   3.837605   3.844676     9.9142     9.8212    35.1235    35.2865 0.0000e+00
    676.576    442.000     9.9681     9.7841   3.836771   3.845183     9.9162     9.7326    35.1125    35.3779 0.0000e+00
    679.309    443.000     9.9077     9.9830   3.834884   3.842578     9.8558     9.9309    35.1513    35.1569 0.0000e+00
    681.454    444.000     9.8942     9.8204   3.834558   3.841316     9.8423     9.7686    35.1606    35.3018 0.0000e+00
    682.311    445.000     9.9239     9.7391   3.832963   3.840686     9.8717     9.6874    35.1151    35.3744 0.0000e+00
    684.173    446.000     9.8596     9.8330   3.832675   3.840915     9.8076     9.7810    35.1740    35.2844 0.0000e+00
    685.722    447.000     9.8260     9.8222   3.832309   3.840459     9.7739     9.7701    35.2025    35.2899 0.0000e+00
    688.313    448.000     9.8757     9.8450   4.048119   3.838240     9.8206     9.7927    37.3739    35.2444 0.0000e+00
    690.022    449.000     9.8676     9.6673   3.828011   3.834342     9.8152     9.6154    35.1171    35.3777 0.0000e+00
    690.562    450.000     9.8609     9.6492   3.826210   3.822947     9.8084     9.5973    35.1048    35.2776 0.0000e+00
    691.727    451.000     9.6825     9.6921   3.706215   3.816615     9.7385     9.6421    34.0464    35.1701 0.0000e+00
    693.247    452.000     9.8090     9.6626   3.821640   3.828506     9.7549     9.6103    35.1074    35.3208 0.0000e+00
    693.937    453.000     9.7883     9.6375   3.818492   3.818963     9.7357     9.5853    35.0948    35.2466 0.0000e+00
    697.240    454.000     9.7326     9.7930   3.816851   3.830504     9.6801     9.7401    35.1316    35.2130 0.0000e+00
    699.031    455.000     9.7546     9.8373   3.816034   3.829274     9.7018     9.7842    35.1014    35.1568 0.0000e+00
    700.304    456.000     9.7443     9.8449   3.815821   3.827140     9.6914     9.7917    35.1088    35.1271 0.0000e+00
    701.359    457.000     9.7518     9.8340   3.815641   3.826443     9.6988     9.7807    35.0992    35.1301 0.0000e+00
    702.503    458.000     9.7415     9.8293   3.814765   3.825750     9.6884     9.7760    35.0998    35.1271 0.0000e+00
    704.277    459.000     9.6910     9.8132   3.815359   3.824239     9.6379     9.7597    35.1545    35.1268 0.0000e+00
    706.233    460.000     9.6079     9.8023   3.816694   3.822339     9.5549     9.7488    35.2490    35.1174 0.0000e+00
    708.735    461.000     9.6999     9.7783   3.814755   3.820611     9.6466     9.7248    35.1388    35.1226 0.0000e+00
    712.090    462.000     9.6965     9.7307   3.813182   3.818596     9.6431     9.6771    35.1254    35.1478 0.0000e+00
    712.851    463.000     9.7134     9.5806   3.812638   3.819670     9.6599     9.5273    35.1029    35.3050 0.0000e+00
    713.550    464.000     9.7154     9.5510   3.811889   3.811710     9.6617     9.4978    35.0928    35.2514 0.0000e+00
    714.195    465.000     9.6999     9.5406   3.811141   3.805583     9.6461     9.4873    35.0998    35.1979 0.0000e+00
    714.885    466.000     9.6930     9.5260   3.810575   3.803216     9.6392     9.4727    35.1002    35.1873 0.0000e+00
    716.770    467.000     9.6643     9.5299   3.753088   3.813241     9.6109     9.4764    34.5370    35.2865 0.0000e+00
    718.264    468.000     9.5155     9.5096   3.742579   3.797671     9.5475     9.4586    34.5712    35.1451 0.0000e+00
    719.707    469.000     9.6197     9.5097   3.800060   3.810674     9.5658     9.4560    35.0620    35.2789 0.0000e+00
    720.342    470.000     9.6096     9.4953   3.800963   3.802682     9.5556     9.4416    35.0806    35.2099 0.0000e+00
    721.162    471.000     9.6007     9.4912   3.800830   3.799660     9.5466     9.4374    35.0874    35.1823 0.0000e+00
    722.311    472.000     9.5799     9.4986   3.800908   3.807168     9.5257     9.4446    35.1081    35.2522 0.0000e+00
    723.375    473.000     9.5549     9.4997   3.800709   3.807642     9.5007     9.4456    35.1300    35.2555 0.0000e+00
    726.367    474.000     9.5774     9.5471   3.799958   3.809454     9.5230     9.4927    35.0999    35.2274 0.0000e+00
    727.777    475.000     9.5817     9.4647   3.798652   3.802239     9.5272     9.4105    35.0817    35.2331 0.0000e+00
    728.516    476.000     9.5705     9.4510   3.797621   3.794485     9.5160     9.3968    35.0815    35.1658 0.0000e+00
    729.221    477.000     9.5617     9.4472   3.797166   3.799646     9.5070     9.3928    35.0850    35.2224 0.0000e+00
    729.348    478.000     9.5628     9.4500   3.797187   3.803037     9.5080     9.3954    35.0837    35.2544 0.0000e+00
    729.429    479.000     9.5650     9.4520   3.797316   3.803575     9.5101     9.3973    35.0824    35.2575 0.0000e+00
    729.480    480.000     9.5674     9.4535   3.797436   3.802329     9.5123     9.3988    35.0809    35.2426 0.0000e+00
    729.516    481.000     9.5691     9.4551   3.797582   3.797116     9.5139     9.4002    35.0803    35.1867 0.0000e+00
    729.543    482.000     9.5698     9.4567   3.797943   3.776326     9.5145     9.4018    35.0828    34.9698 0.0000e+00
 -9.990e-29    483.000 -9.990e-29 -9.990e-29 -9.990e-29 -9.990e-29 -9.990e-29 -9.990e-29 -9.990e-29 -9.990e-29 -9.990e-29
    729.583    484.000     9.5707     9.4594   3.799883   3.657633     9.5151     9.4053    35.1011    33.7433 0.0000e+00
 -9.990e-29    485.000 -9.990e-29 -9.990e-29 -9.990e-29 -9.990e-29 -9.990e-29 -9.990e-29 -9.990e-29 -9.990e-29 -9.990e-29
    729.625    486.000     9.5722     9.4626   3.810574   3.450714     9.5163     9.4096    35.2089    31.6233 0.0000e+00
 -9.990e-29    487.000 -9.990e-29 -9.990e-29 -9.990e-29 -9.990e-29 -9.990e-29 -9.990e-29 -9.990e-29 -9.990e-29 -9.990e-29
 -9.990e-29    488.000 -9.990e-29 -9.990e-29 -9.990e-29 -9.990e-29 -9.990e-29 -9.990e-29 -9.990e-29 -9.990e-29 -9.990e-29
    729.667    489.000     9.5810     9.4629   3.856757   3.407280     9.5244     9.4100    35.6755    31.1800 0.0000e+00
 -9.990e-29    490.000 -9.990e-29 -9.990e-29 -9.990e-29 -9.990e-29 -9.990e-29 -9.990e-29 -9.990e-29 -9.990e-29 -9.990e-29
 -9.990e-29    491.000 -9.990e-29 -9.990e-29 -9.990e-29 -9.990e-29 -9.990e-29 -9.990e-29 -9.990e-29 -9.990e-29 -9.990e-29
 -9.990e-29    492.000 -9.990e-29 -9.990e-29 -9.990e-29 -9.990e-29 -9.990e-29 -9.990e-29 -9.990e-29 -9.990e-29 -9.990e-29
    729.708    493.000     9.6387     9.4430   4.028760   3.592297     9.5802     9.3882    37.3972    33.0842 0.0000e+00
 -9.990e-29    494.000 -9.990e-29 -9.990e-29 -9.990e-29 -9.990e-29 -9.990e-29 -9.990e-29 -9.990e-29 -9.990e-29 -9.990e-29
 -9.990e-29    495.000 -9.990e-29 -9.990e-29 -9.990e-29 -9.990e-29 -9.990e-29 -9.990e-29 -9.990e-29 -9.990e-29 -9.990e-29
 -9.990e-29    496.000 -9.990e-29 -9.990e-29 -9.990e-29 -9.990e-29 -9.990e-29 -9.990e-29 -9.990e-29 -9.990e-29 -9.990e-29
 -9.990e-29    497.000 -9.990e-29 -9.990e-29 -9.990e-29 -9.990e-29 -9.990e-29 -9.990e-29 -9.990e-29 -9.990e-29 -9.990e-29
 -9.990e-29    498.000 -9.990e-29 -9.990e-29 -9.990e-29 -9.990e-29 -9.990e-29 -9.990e-29 -9.990e-29 -9.990e-29 -9.990e-29
    729.750    499.000     9.7207     9.3091   4.354093   3.756048     9.6588     9.2529    40.7058    34.8958 0.0000e+00
 -9.990e-29    500.000 -9.990e-29 -9.990e-29 -9.990e-29 -9.990e-29 -9.990e-29 -9.990e-29 -9.990e-29 -9.990e-29 -9.990e-29
 -9.990e-29    501.000 -9.990e-29 -9.990e-29 -9.990e-29 -9.990e-29 -9.990e-29 -9.990e-29 -9.990e-29 -9.990e-29 -9.990e-29
 -9.990e-29    502.000 -9.990e-29 -9.990e-29 -9.990e-29 -9.990e-29 -9.990e-29 -9.990e-29 -9.990e-29 -9.990e-29 -9.990e-29
 -9.990e-29    503.000 -9.990e-29 -9.990e-29 -9.990e-29 -9.990e-29 -9.990e-29 -9.990e-29 -9.990e-29 -9.990e-29 -9.990e-29
 -9.990e-29    504.000 -9.990e-29 -9.990e-29 -9.990e-29 -9.990e-29 -9.990e-29 -9.990e-29 -9.990e-29 -9.990e-29 -9.990e-29
 -9.990e-29    505.000 -9.990e-29 -9.990e-29 -9.990e-29 -9.990e-29 -9.990e-29 -9.990e-29 -9.990e-29 -9.990e-29 -9.990e-29
    729.792    506.000     9.5021     8.5448   4.209195   3.769290     9.4410     8.4899    39.4226    35.7887 0.0000e+00
 -9.990e-29    507.000 -9.990e-29 -9.990e-29 -9.990e-29 -9.990e-29 -9.990e-29 -9.990e-29 -9.990e-29 -9.990e-29 -9.990e-29
 -9.990e-29    508.000 -9.990e-29 -9.990e-29 -9.990e-29 -9.990e-29 -9.990e-29 -9.990e-29 -9.990e-29 -9.990e-29 -9.990e-29
 -9.990e-29    509.000 -9.990e-29 -9.990e-29 -9.990e-29 -9.990e-29 -9.990e-29 -9.990e-29 -9.990e-29 -9.990e-29 -9.990e-29
    729.875    510.000 -9.990e-29     7.8190 -9.990e-29 -9.990e-29 -9.990e-29     7.7944 -9.990e-29 -9.990e-29 0.0000e+00
